#lambda/nm	DC	C1
208.295	548	548.2
208.67	482.6	489
209.045	454.6	453
209.419	449.2	443.6
209.794	591.4	591
210.169	590.2	583.2
210.544	704.2	701.2
210.919	621.4	623.8
211.295	621	614
211.67	623.6	622.8
212.045	624.8	609.8
212.421	608.4	609.8
212.796	647.4	646.8
213.172	612	619.6
213.547	613	613.8
213.923	622.2	617.4
214.299	609.8	613
214.675	624.8	616.6
215.051	629.6	633.4
215.427	636	636.8
215.803	639.2	638.2
216.179	630	629.4
216.555	626.4	622.6
216.932	646	645.2
217.308	647	638.2
217.684	630.2	637
218.061	642.2	638.4
218.438	648.4	652.4
218.814	643.8	645
219.191	667	650.4
219.568	644.8	641.8
219.945	653.2	651
220.322	656.2	647.6
220.699	664.4	654.6
221.076	661.4	658.2
221.453	663	662.2
221.83	651.4	645.8
222.208	662.4	654.8
222.585	660.6	649.6
222.962	666.8	659
223.34	664.2	659.4
223.717	652	659.6
224.095	664.6	655.4
224.473	673.4	656.2
224.851	655	664.2
225.229	670.2	658
225.607	684	676.4
225.985	660	662.6
226.363	677.2	670.2
226.741	683.6	674.6
227.119	674.2	673
227.497	688	690.6
227.876	666.6	666
228.254	681.2	688
228.633	691.8	696.8
229.011	687	688.4
229.39	697.6	692.4
229.769	697.4	691.8
230.148	695.2	696.8
230.527	712.8	714.6
230.905	704.6	702.4
231.284	703.2	695.2
231.664	713.2	692.8
232.043	709.6	716.6
232.422	717.2	716.2
232.801	702	715.6
233.181	719.2	722.4
233.56	721.2	719
233.94	728.8	723.4
234.319	720.2	721.6
234.699	731.6	736
235.079	763.6	774
235.458	763.2	774
235.838	760.6	754.8
236.218	749.4	746.4
236.598	742.4	740
236.978	745.8	747
237.358	750.8	753.4
237.738	755.6	749
238.119	768.4	770.6
238.499	758	754.4
238.88	763.8	773.2
239.26	782.8	784
239.641	772.6	766.6
240.021	784.6	779
240.402	786	777.6
240.783	786	773
241.163	782.4	790.6
241.544	799	797.8
241.925	796.4	789.8
242.306	801.8	808.2
242.687	796	791
243.069	793.8	789.4
243.45	803.4	797.8
243.831	773.6	784.6
244.212	781.2	774
244.594	809	802.6
244.975	781.6	776.2
245.357	771	771
245.739	750.2	760
246.12	763.6	757.4
246.502	758.6	759
246.884	740.8	737.2
247.266	735.2	729.8
247.648	735.8	729.6
248.03	741.8	753.8
248.412	731	726
248.794	729.8	722.6
249.176	704	701.6
249.559	712.2	714.6
249.941	699	690.2
250.323	692	680.6
250.706	677.4	682.8
251.089	679.8	681.2
251.471	679.2	685.8
251.854	674.4	669.2
252.237	670.4	674.8
252.62	683	662
253.002	659.4	660.8
253.385	662.2	653.4
253.769	662.8	655.6
254.152	644.6	648.4
254.535	656.2	652
254.918	637	629.2
255.301	633.8	642
255.685	636.6	632
256.068	625.6	625
256.452	647.6	653.2
256.835	638	631.4
257.219	628	629.4
257.603	634.2	646.2
257.986	614.4	622.8
258.37	628.4	623
258.754	615.6	612.8
259.138	624.8	625.8
259.522	633.8	622
259.906	618	622.6
260.29	619.2	619.4
260.675	615	622.2
261.059	621.4	616.8
261.443	616.8	618.2
261.828	622	617.8
262.212	630.4	625.6
262.597	606.8	603.8
262.981	613.8	618
263.366	626	624.8
263.751	613.4	624
264.136	611.4	610.8
264.521	615.2	613
264.906	618.2	619.8
265.291	633	631.8
265.676	617.4	620.8
266.061	626.4	623.4
266.446	638	631.8
266.831	612.8	624.4
267.217	632.8	637.8
267.602	619.4	617.6
267.987	624.2	622.6
268.373	619.4	619.4
268.759	627.6	626.4
269.144	622	625.6
269.53	619.2	621.2
269.916	618.8	627.6
270.302	619.2	609.6
270.688	632	617
271.074	626.6	623.2
271.46	630.6	633.4
271.846	646.4	636.4
272.232	619.2	623.4
272.618	611.4	616.2
273.004	618	621.8
273.391	633	625.6
273.777	638.2	635.6
274.164	631.2	620.6
274.55	637.4	631.2
274.937	629.2	619
275.324	623.4	616
275.71	626.4	620
276.097	629	628.2
276.484	614.4	617.8
276.871	613.6	621
277.258	621.2	627.8
277.645	617.6	609.6
278.032	617.4	615.4
278.419	611.8	615.8
278.807	618.8	623.4
279.194	617.4	614.6
279.581	608.6	621.4
279.969	620.2	623.6
280.356	617.6	621.8
280.744	624	615.6
281.131	644	642.2
281.519	627.2	624
281.907	619.2	611.4
282.295	622.8	616.4
282.682	636.6	628.6
283.07	629	616.2
283.458	630	629.4
283.846	632	632.2
284.235	628.4	623.6
284.623	622.2	631
285.011	616.6	617.2
285.399	628.4	621.2
285.788	621.4	627.2
286.176	615	609.4
286.565	633.8	629.8
286.953	618.2	616.4
287.342	617.8	616.6
287.731	612	612.6
288.119	610.4	610.6
288.508	620.6	615.6
288.897	623.8	615.8
289.286	621	608.8
289.675	624.8	619.8
290.064	628.6	629.2
290.453	616.4	622.2
290.821	617.2	624.4
291.21	628	636
291.599	626.6	624.2
291.989	615.2	626.2
292.378	628.4	623.6
292.768	636.8	636.4
293.157	621.6	622.8
293.547	621.2	623
293.936	621.6	626
294.326	620.8	612.6
294.716	621.6	614
295.106	623.6	612.4
295.496	627.4	622.2
295.886	627.2	624.6
296.276	619.6	613.8
296.666	621.6	613.4
297.056	623.8	618
297.446	617	613
297.836	631	631.2
298.227	615.6	616
298.617	621.4	624.4
299.008	632	627.8
299.398	623.8	621.4
299.789	618.6	612.8
300.179	620.6	630.6
300.57	632.4	634.6
300.961	619.2	617.8
301.352	621	617
301.742	628.6	632.6
302.133	625.2	624.4
302.524	621	619.2
302.915	628.6	618.8
303.307	615.8	610.4
303.698	629.2	631.4
304.089	627.8	628
304.48	625	628.2
304.872	623.2	621
305.263	611.8	629
305.655	605.8	616.2
306.046	623.6	623.6
306.438	627	623
306.829	613	613.8
307.221	629.8	627.2
307.613	632.6	624
308.005	636.6	628.2
308.397	624	632
308.789	633.4	637.4
309.181	634.2	651.8
309.573	634.2	638.6
309.965	630.6	634.2
310.357	613.4	616
310.749	628.2	637
311.142	615	626.2
311.534	618.4	617.6
311.926	635.4	625.8
312.319	634.8	631.2
312.711	620.6	620.6
313.104	632.6	633.2
313.497	616.8	629.6
313.889	652	653.8
314.282	635	635.8
314.675	639.4	636.4
315.068	620.2	623
315.461	626	629.6
315.854	643	651.2
316.247	630.4	628.6
316.64	628.8	618.6
317.033	624.4	616.6
317.405	631.8	633.2
317.798	627.4	620.2
318.192	623.8	630.4
318.585	621.8	612.4
318.979	629.6	621
319.372	617.8	613.6
319.766	617.8	621.8
320.16	623.4	633.6
320.553	632.8	630.8
320.947	632	637
321.341	622.6	620.6
321.735	620.8	623
322.129	609.4	609.6
322.523	644.4	639.4
322.917	612	619.4
323.311	631.6	635.2
323.705	620	622.6
324.099	618	620
324.494	629.4	637.2
324.888	635.6	628.6
325.282	622	614.2
325.677	629.4	630.8
326.071	619	624.6
326.466	623.4	633
326.861	622	620.6
327.255	629.2	628.4
327.65	627.8	626.6
328.045	621.4	634.2
328.44	626.2	628.4
328.835	624.6	616.8
329.23	617.2	611.2
329.625	645.6	641.6
330.02	613.6	614.4
330.415	635.6	635.4
330.81	615.6	620.4
331.206	626.2	624.4
331.601	617.4	621.4
331.996	621.2	632
332.37	630.6	640.2
332.766	617.6	613.8
333.161	639	636.6
333.557	622.8	615.4
333.953	614.4	619.6
334.348	868.8	871.2
334.744	627	623.8
335.14	615.6	611.4
335.536	616.8	627.2
335.932	627.4	637.4
336.328	615	623
336.724	623.8	631
337.12	620.6	617
337.516	626.6	620
337.913	618.2	625.8
338.309	638.4	633.2
338.705	626.2	624.2
339.102	632.6	634.6
339.498	615.4	626.2
339.895	641.8	629.6
340.291	619.2	619.6
340.688	624.6	626.6
341.085	617.8	626
341.481	624.8	615.2
341.878	621.4	623.8
342.275	635.2	635.8
342.672	620.4	617.6
343.069	614.4	615.8
343.466	615.4	613.6
343.842	630.6	634
344.239	620.6	620.2
344.636	615.2	627
345.033	617	614.4
345.431	614.4	616.6
345.828	624.2	619.6
346.225	619.8	614.6
346.623	637.6	625
347.02	627.8	625.6
347.418	642	631.2
347.816	641	637.4
348.213	613	615.4
348.611	629.6	617
349.009	618	622.4
349.407	631.2	622.6
349.805	614.8	610.2
350.203	616.8	614.8
350.601	629.2	625.2
350.999	616.2	615.2
351.397	655.6	658.2
351.795	621	622.4
352.193	630	627.8
352.57	625.8	622.8
352.969	630.6	627.4
353.367	618	609.8
353.766	620.8	607.8
354.164	616.8	618.4
354.563	625.2	624.2
354.961	614.6	613.8
355.36	617.8	617.4
355.759	621.4	626.8
356.158	617.2	614.2
356.557	611.4	616
356.956	614.2	615.4
357.355	611	610.2
357.754	621.8	621.8
358.153	622.4	629
358.552	641.8	640
358.951	615.6	616.8
359.35	630.4	631
359.75	611.8	619.2
360.149	613.2	615.2
360.527	606.2	621.8
360.926	620	611.2
361.326	622.2	620.6
361.726	625.4	624.8
362.125	615.4	622.8
362.525	625.2	632.4
362.925	617.8	619.6
363.325	623.2	614.8
363.724	625.2	620.6
364.124	612.2	620.2
364.524	623.6	617.6
364.924	621.6	618.2
365.324	630	629
365.725	601.4	606.8
366.125	620.6	627.6
366.525	624.4	616.4
366.904	616.8	617.8
367.304	606.8	610.6
367.705	631	633.2
368.105	639.2	638.2
368.506	627.2	619.4
368.906	623.8	622.6
369.307	619	621.2
369.708	618	627.6
370.108	614.4	612.2
370.509	631	633.2
370.91	607.6	623.4
371.311	621.8	625
371.712	625	619.2
372.113	626.4	619.4
372.514	614.8	611.2
372.894	625	624.4
373.295	608.4	617.4
373.696	636	627.6
374.097	623	630.8
374.499	649	646.8
374.9	622.2	628.8
375.301	620.4	617.4
375.703	627.4	629
376.105	617	616.2
376.506	619.2	619.2
376.908	626	628.4
377.309	622.6	628.6
377.711	630.4	618.2
378.113	616.4	617.2
378.493	621.2	620.6
378.895	618.8	618.6
379.297	628.2	627.2
379.699	607.8	611.6
380.102	620.4	629
380.504	628.4	614.4
380.906	622.2	623
381.308	649	646.8
381.71	627.2	610.8
382.113	628.8	634.8
382.515	621	624.2
382.918	625.2	622.6
383.299	625.6	616.4
383.701	634	626
384.104	623.2	632.8
384.507	611	612.6
384.909	618.4	620
385.312	617.4	613.8
385.715	616.2	618.8
386.118	616.8	626
386.521	616.8	618.8
386.924	638.2	639
387.327	627.6	628.4
387.709	624.4	619.8
388.112	613.4	619
388.515	614.8	619.4
388.918	629.6	623.2
389.322	635.2	637.6
389.725	618.2	628.4
390.129	643.4	656.6
390.532	634.2	629.6
390.936	631.6	620.6
391.339	619	622.2
391.743	619.6	631.8
392.125	631	620.8
392.529	644.6	642
392.933	640.6	631.6
393.337	629.2	626.4
393.74	625.4	627
394.144	627.2	627.6
394.548	626	622.4
394.953	622.6	630
395.357	629.2	641
395.761	629.6	625.8
396.144	628.4	628.2
396.548	635.8	630
396.952	633.6	638
397.357	642.8	623.2
397.761	619.8	627
398.166	628	640
398.57	628	630
398.975	619	621.4
399.379	647.6	638.4
399.763	674.6	679
400.168	640.4	640
400.572	640.2	625.2
400.977	631.4	633
401.382	655.8	654.6
401.787	645.4	640.4
402.192	653.6	650
402.597	654.2	646.8
403.002	637.2	629.4
403.386	652.6	655.8
403.791	670.8	655.6
404.197	639.8	645.2
404.602	657	657.2
405.007	654	658.4
405.413	655.8	665.2
405.818	669	678
406.224	669.6	669.4
406.608	670	672.6
407.014	674	671
407.42	695.2	694.6
407.825	686.2	684.4
408.231	700.4	698.8
408.637	705.2	696.4
409.043	715.6	726.8
409.449	711	714.6
409.834	720.6	724.6
410.24	745	739.2
410.646	748.8	749
411.052	769.4	762.8
411.458	779.2	779.6
411.865	793.2	795.2
412.271	804	810.4
412.677	821.6	815.2
413.062	834.2	830.2
413.469	844.4	843.2
413.875	890.4	888.8
414.282	904.8	912.4
414.689	914.2	921.8
415.095	943.2	941.8
415.502	966.8	961.2
415.888	983	984.8
416.294	1012.2	992.8
416.701	1078.4	1079.8
417.108	1080.2	1068.4
417.515	1128	1122.8
417.923	1161	1149.2
418.33	1202.6	1190.8
418.715	1227	1242.2
419.123	1277.6	1252.2
419.53	1312	1308
419.937	1353	1353
420.345	1418.2	1418.8
420.752	1456.2	1447.4
421.16	1523.8	1517.8
421.546	1566.4	1568.2
421.953	1643.8	1630.6
422.361	1670.2	1681.4
422.769	1760	1767.8
423.177	1820.6	1828.8
423.585	1917.2	1914.8
423.992	1990	1994
424.379	2062.2	2079.8
424.787	2152	2173.2
425.195	2257.8	2251.6
425.603	2331.8	2351
426.011	2472.4	2464.8
426.419	2567	2559.2
426.806	2673.8	2678.2
427.214	2799	2775.6
427.623	2933.2	2924.6
428.031	3098.4	3073.2
428.44	3202.4	3207.4
428.848	3357.2	3359
429.235	3533.2	3525.6
429.644	3685.6	3673.4
430.053	3835.6	3853
430.461	4036.4	4067
430.87	4259	4267.2
431.279	4421.2	4457
431.666	4621.2	4632
432.075	4842.6	4863.2
432.484	5089.2	5122
432.893	5322.8	5352
433.302	5544.8	5592
433.711	5838	5895.8
434.099	6080.8	6112
434.508	6347.2	6400.8
434.918	6618	6703.4
435.327	6941	7016.6
435.737	7238.4	7368.2
436.125	7608	7693
436.534	7922.8	7991.4
436.944	8261	8387
437.353	8624.2	8775.8
437.763	9030.8	9104
438.173	9408.6	9471.4
438.561	9792.8	9907.2
438.971	10199.6	10335.6
439.381	10605	10780.8
439.791	11100.6	11237.6
440.201	11496.8	11696.2
440.589	12001.4	12142.4
440.999	12544.4	12755.6
441.409	13118.6	13214.8
441.819	13589.8	13769.2
442.23	14233.6	14442.4
442.619	14883.6	15005.4
443.029	15500.8	15648.4
443.439	16168.4	16318.8
443.85	16934.2	17098.2
444.26	17657.6	17822
444.649	18400	18618.8
445.06	19264.6	19467.6
445.471	20156.6	20333.6
445.881	21083.2	21229.4
446.292	21942	22151
446.682	22981.2	23218.6
447.092	23959.8	24153.6
447.503	25092.6	25269.2
447.914	26076.2	26329.2
448.325	27241.2	27458
448.715	28336.2	28440.4
449.126	29381.8	29612.6
449.537	30488.8	30664.4
449.948	31566.8	31710
450.338	32669.4	32826.4
450.75	33644.4	33781.4
451.161	34543.4	34704
451.572	35525.6	35582
451.984	36300.8	36408.2
452.374	36931.2	37018.6
452.786	37521.6	37715
453.197	38001.4	38216.4
453.609	38412	38608.4
453.999	38646.6	38762.2
454.411	38754	38837.2
454.823	38706	38812.8
455.235	38482.6	38708.4
455.647	38357	38483.2
456.037	37976.4	38104.4
456.449	37413.2	37609.4
456.862	36878.4	36993.6
457.274	36182.6	36353.8
457.665	35428.6	35620.8
458.077	34675.6	34827.6
458.489	33738.2	34025.6
458.902	32870.2	33126.4
459.293	32028.4	32156.6
459.705	31114.4	31298.2
460.118	30155.8	30433.6
460.53	29332.4	29588.4
460.921	28412.8	28682.4
461.334	27597.2	27785.4
461.747	26829	27074.8
462.16	26125.6	26372.8
462.551	25472.2	25681
462.964	24719.4	25007
463.377	24184.4	24421.2
463.79	23724.6	23907
464.182	23190.8	23376.6
464.595	22743	22894.4
465.008	22326.2	22460.8
465.421	21850.6	22147
465.813	21498.6	21739.2
466.226	21119	21365.4
466.64	20809.6	21061.8
467.053	20554.2	20753.6
467.445	20221.8	20441.4
467.859	19862.6	20178.2
468.272	19556	19817.2
468.686	19296.4	19515.2
469.078	18985.8	19185.6
469.492	18536.8	18809.6
469.906	18305.4	18503.4
470.298	17982.2	18168.6
470.712	17581	17756.6
471.126	17255.8	17459
471.54	16853.8	17077
471.933	16496.4	16749.2
472.347	16119	16410.8
472.761	15770.4	16041.8
473.175	15365.4	15704.8
473.568	15064.4	15320
473.982	14669.6	14958.8
474.397	14410.4	14595
474.79	14046.6	14293.8
475.204	13759.6	14035.8
475.619	13427.2	13665.4
476.033	13166.4	13353.2
476.426	12896.4	13125.2
476.841	12635.4	12878.2
477.256	12449.6	12683
477.649	12173.8	12439.8
478.064	12050.8	12250.2
478.479	11855	12110.2
478.872	11730.4	11978.4
479.287	11599	11832.6
479.702	11443	11719.6
480.118	11407.2	11664.2
480.511	11300.2	11581.6
480.927	11289.2	11483.8
481.342	11183.8	11453
481.736	11180.4	11459.8
482.151	11152.4	11424.2
482.566	11194.2	11398.4
482.96	11173.4	11396.4
483.376	11228.6	11467.4
483.792	11284.6	11502.4
484.186	11318.8	11551.6
484.602	11268.8	11567.2
485.017	11387.2	11614
485.412	11429.8	11699.4
485.827	11463.4	11737.6
486.243	11567.2	11701.2
486.638	11639.4	11864.4
487.054	11711.6	11909
487.47	11793.6	12051
487.865	11793.2	12047.4
488.281	11935.2	12150.6
488.697	12020.4	12262.6
489.092	12202	12345.6
489.508	12245.8	12418.2
489.925	12399.2	12564.2
490.32	12502.6	12713.6
490.736	12567.8	12849.4
491.153	12784.6	12951.8
491.548	12879.4	13107.6
491.964	13079.6	13242
492.381	13227	13380.4
492.776	13410.6	13571.8
493.193	13537	13779
493.61	13770.8	13918
494.006	13946.4	14092.8
494.422	14155.6	14314.6
494.84	14320.8	14530.8
495.235	14540.4	14693.8
495.652	14747	14873.2
496.069	14948.2	15140.4
496.465	15219.2	15360.2
496.883	15465.4	15624.8
497.3	15685	15847.6
497.696	15964.6	16088.6
498.113	16171	16277.4
498.509	16371	16530.6
498.927	16620.4	16745.2
499.344	16881.6	16983.8
499.741	17108	17314.2
500.158	17352.8	17500.4
500.576	17616.2	17745.2
500.973	17897.2	18015.6
501.39	18066	18253.8
501.787	18337.2	18499
502.205	18642.4	18754.6
502.623	18835.6	18954.8
503.02	19037.6	19219.4
503.438	19317.4	19431.4
503.856	19578.6	19652.8
504.253	19832.8	19924.8
504.671	20022.4	20174
505.068	20276.6	20375.4
505.486	20465.8	20684.2
505.905	20775.2	20863
506.302	21011.6	21073.8
506.72	21184.4	21305.4
507.118	21420.4	21552.6
507.536	21699.2	21711.8
507.955	21889.6	22031.6
508.352	22134.2	22282.4
508.771	22307.2	22403.2
509.169	22517.6	22658.8
509.587	22718.6	22791.8
510.006	22981.6	23010.6
510.404	23190.6	23279.2
510.823	23417	23451.8
511.221	23540.2	23658.2
511.64	23781.6	23911.2
512.038	23988.4	24003
512.457	24179.4	24221.6
512.877	24311.2	24444
513.275	24552.2	24687.6
513.694	24757.4	24764.8
514.092	24963.4	24957.4
514.512	25144.6	25152
514.91	25348.4	25344.6
515.33	25484.8	25559
515.749	25611.6	25667
516.148	25872.2	25883
516.568	25964.8	26100.2
516.966	26214.4	26240.4
517.386	26332.6	26473.2
517.785	26523.4	26607.4
518.205	26723.4	26713
518.603	26871.6	26870.6
519.024	27057.4	27009
519.444	27150.4	27237.2
519.843	27379.6	27360
520.263	27513.4	27542.2
520.662	27726.4	27704.4
521.082	27750.8	27863.2
521.481	27946.6	27974
521.902	28086.2	28142.6
522.301	28205.2	28291
522.722	28409.4	28424.4
523.121	28564.6	28568
523.542	28636.4	28686
523.963	28780.6	28755.8
524.362	28896.6	28990.4
524.783	29074.2	29026.6
525.183	29153.4	29132.6
525.604	29296.6	29296.6
526.003	29394.6	29367.8
526.425	29490	29534.6
526.824	29621.6	29670.4
527.246	29739.2	29745.2
527.646	29843.6	29848.8
528.067	29841	29987.2
528.467	30099.6	30072.6
528.888	30138	30249
529.289	30339.8	30362.4
529.71	30408.4	30394
530.11	30531.8	30549.4
530.532	30569.8	30652
530.932	30764	30805.2
531.354	30884	30784.8
531.755	31043	31003.2
532.176	31072.2	31147.8
532.577	31268	31277.6
532.999	31341.6	31393.6
533.4	31521.4	31466.2
533.822	31718.4	31617.2
534.223	31751	31745.4
534.645	31946.8	31918.2
535.046	32063.8	32035
535.468	32158.2	32171.4
535.869	32455.8	32363.4
536.292	32482.2	32448
536.693	32669.4	32629.2
537.115	32688	32716.4
537.516	32883.6	32903.2
537.939	33088.8	32987.8
538.34	33188.2	33161.8
538.742	33270.4	33261
539.165	33428.4	33455.6
539.566	33566.6	33542.2
539.989	33749.4	33759
540.391	33870.4	33845.2
540.814	33967.2	33898.4
541.216	34115.4	34107.4
541.639	34154.6	34242.6
542.041	34391.2	34303.2
542.464	34480.2	34446
542.866	34656.4	34630.4
543.268	34784	34704.6
543.691	34801.8	34831.6
544.093	35009.8	34954.6
544.517	35083.6	35125.8
544.919	35165.6	35182
545.343	35376.2	35351
545.745	35418.2	35427.6
546.147	35613.8	35580.6
546.571	35702	35676.2
546.974	35799.8	35810
547.398	35951	35880.8
547.8	36040	36071
548.224	36074.8	36110.6
548.627	36267.8	36189.4
549.03	36391.8	36453
549.454	36577.8	36454.6
549.857	36622.2	36572.4
550.281	36764.4	36676
550.684	36814.6	36777
551.087	37025.2	36967.8
551.512	37119.2	37084
551.915	37270.8	37182
552.34	37336.6	37253.8
552.743	37454.4	37373.6
553.146	37587.2	37461.6
553.571	37751.4	37718
553.975	37865.8	37779.8
554.399	37938.4	37848.4
554.803	38073.2	37948.2
555.207	38204.4	38071.2
555.632	38317.4	38248.8
556.036	38438	38297.4
556.461	38573.2	38542.4
556.865	38673.4	38588.2
557.268	38818.2	38690.6
557.694	38961	38852
558.098	39009.8	38935.2
558.502	39138	39146
558.927	39342.2	39194.6
559.332	39471	39304.4
559.736	39563.6	39450
560.162	39713.2	39655.6
560.566	39862	39868
560.992	39975.6	39888.4
561.396	40176.8	39931.4
561.801	40175.4	40220.8
562.227	40348.4	40310.2
562.631	40452.8	40434.6
563.036	40623.2	40537.2
563.462	40809.8	40740
563.867	40966.6	40948
564.272	41082.4	40977.8
564.698	41183.2	41132.8
565.103	41453.2	41326.2
565.508	41560.8	41425.6
565.935	41641.6	41550
566.34	41818.2	41693.8
566.745	42006	41771
567.172	42024.8	41902.4
567.577	42249.4	42074.6
567.982	42364	42218.2
568.409	42514.6	42308
568.815	42584.4	42420.8
569.22	42829	42539.4
569.626	42804.6	42696.4
570.053	43005.2	42818.8
570.459	43144.6	42963.8
570.865	43122.6	43084.8
571.292	43373.6	43292.8
571.698	43498.4	43349.8
572.104	43530.8	43576.6
572.531	43714.4	43688.8
572.937	43831	43756.6
573.343	44000.8	43877.8
573.75	44082	43953.6
574.177	44164.6	44083.6
574.583	44250.6	44170.6
574.99	44335.8	44247
575.396	44517.4	44533.4
575.824	44707.4	44580.4
576.231	44800.6	44661.2
576.637	44882.2	44846.4
577.065	45049.4	44896.2
577.472	45171.6	45003.8
577.879	45166.2	44991.6
578.286	45224.4	45144.8
578.714	45514	45297
579.121	45494.2	45317.2
579.528	45550.8	45518.6
579.935	45685.8	45550.6
580.364	45850.4	45670.2
580.771	45767.6	45684.6
581.178	45945.6	45765.4
581.585	46049.2	45941
582.014	46118.4	45962
582.421	46185.6	46067.4
582.829	46256.2	46302
583.236	46329.6	46268.4
583.644	46443	46286.2
584.073	46443.8	46332.4
584.481	46590.4	46523.4
584.889	46544.6	46408.8
585.296	46700	46554.8
585.726	46595.8	46600.8
586.134	46706.4	46672.6
586.542	46805.6	46708.8
586.95	46892.4	46787
587.358	46864.2	46838.8
587.787	46981.8	46799.4
588.196	47016.8	46896
588.604	47034.8	46915.2
589.012	46924.4	46829.4
589.421	47104.8	46973
589.851	47066.2	47036.6
590.259	47140.6	47008.8
590.668	47092.8	47067
591.076	47226.4	47027.4
591.485	47154.4	47076
591.894	47269	46984.4
592.324	47153.2	47023.2
592.733	47260	47085.4
593.142	47272.4	47108.2
593.551	47264.2	47058.4
593.96	47338.8	47183.2
594.369	47205.4	47061.8
594.8	47236.4	47174.4
595.209	47229.8	47166.4
595.618	47184	47048.6
596.028	47202	47099.2
596.437	47080.8	47027.6
596.847	47108.2	46991.2
597.256	47089.4	46914.4
597.687	46995	46796.8
598.097	46926.6	46769.4
598.507	46987.4	46869
598.917	46975.8	46771.8
599.327	46901.8	46728.4
599.736	46839.6	46700.2
600.146	46769.8	46676
600.556	46713	46562.2
600.988	46666.4	46524.8
601.398	46525	46494
601.808	46427.6	46353
602.219	46424.4	46324.2
602.629	46412	46235.4
603.039	46229.2	46087.4
603.45	46328.2	46114
603.86	46102.4	45911.8
604.271	46061.6	45852.8
604.703	45891.4	45803.8
605.114	45815.4	45669
605.525	45754	45526.4
605.935	45693.6	45572.2
606.346	45557.2	45353
606.757	45431.2	45276
607.168	45324.8	45207.8
607.579	45110.4	45081.4
607.99	45163.6	44977.8
608.402	44996	44767.6
608.813	44902	44725.2
609.224	44733.4	44586.8
609.636	44536.4	44507.6
610.047	44468.6	44348.4
610.48	44279	44218.2
610.892	44113.4	44017.2
611.303	44185.6	43990
611.715	44005	43894.8
612.127	43917.6	43673.8
612.539	43731.4	43671.8
612.95	43547.2	43473.4
613.362	43512	43336.2
613.774	43261.2	43135
614.186	43192	43083.4
614.599	42984	42891.8
615.011	42822	42746
615.423	42602.8	42511.8
615.835	42533.2	42369.8
616.248	42363.8	42150.4
616.66	42057	41976.2
617.073	41865.2	41770.8
617.485	41772	41593.6
617.898	41540.8	41440.4
618.311	41425.8	41242
618.723	41165.2	41121.4
619.136	41081.4	40934.4
619.549	40767.4	40776.6
619.962	40662	40552.6
620.375	40468.4	40326.4
620.788	40272.6	40150.8
621.201	40101.4	40037.2
621.614	39947.8	39829.2
622.028	39677.4	39632.2
622.441	39517.8	39375.8
622.854	39314.4	39175.2
623.268	39059	38945.6
623.681	38955.8	38731.2
624.095	38736.4	38582.4
624.509	38534.8	38370.8
624.922	38217.6	38135.6
625.336	38140	37983.2
625.728	37850.8	37739.6
626.142	37650	37555.8
626.556	37438.6	37400.8
626.97	37183.4	37029.2
627.384	36941.6	36934.6
627.799	36830.2	36752
628.213	36583.8	36500.2
628.627	36456.6	36313.4
629.041	36180	36126.4
629.456	35941.6	35858
629.87	35752.8	35650.8
630.285	35563	35416.8
630.699	35288.2	35263.8
631.093	35088.6	35029
631.507	34871.6	34710.2
631.922	34574.2	34586.6
632.337	34370.6	34337
632.752	34063.4	34017.4
633.167	33869	33877.6
633.582	33672.8	33608.4
633.997	33428.8	33368.6
634.412	33142.8	33045.2
634.806	32973.6	32857.4
635.221	32702.4	32515
635.637	32286.8	32339.2
636.052	32192	32027
636.468	31891.6	31788.2
636.883	31650.4	31485.2
637.299	31340.8	31192.6
637.715	31032.8	30995
638.109	30923.8	30686.2
638.525	30485.2	30349.8
638.941	30165.6	30021.8
639.357	29954.8	29879.4
639.773	29628.6	29592.4
640.189	29405	29245.4
640.584	29143.6	29012
641	28832.6	28767.6
641.416	28578.8	28371.2
641.832	28297.6	28211.8
642.249	28022.8	28051
642.665	27851.6	27658.6
643.06	27509.8	27525.4
643.477	27235.4	27252.4
643.894	27035.6	26979.6
644.31	26807.2	26685.8
644.727	26543.4	26468.8
645.123	26282	26184.8
645.54	25903.2	25923.8
645.957	25736	25569.2
646.374	25474.8	25448.6
646.77	25254.8	25193.4
647.187	25114.8	25030.2
647.604	24852.2	24847.6
648.021	24698.2	24590.4
648.439	24580.8	24435.2
648.835	24284.4	24171.8
649.252	24101.6	24059.8
649.67	23938.6	23873.8
650.088	23637	23609.8
650.484	23430.4	23496
650.902	23289	23241.4
651.32	23147.6	23038.2
651.738	22971.6	22861.4
652.134	22804	22630.4
652.552	22636.2	22525.6
652.971	22399.2	22344.4
653.389	22120.8	22084
653.786	21952.6	21836.8
654.204	21717	21703
654.622	21471.6	21481.4
655.019	21307.2	21238.4
655.438	21185.4	21107.8
655.857	20941.6	20936.2
656.275	20804.8	20765.4
656.673	20636.6	20598.6
657.091	20446.8	20466.8
657.51	20227.6	20229.4
657.908	20000.2	19990.6
658.327	19840	19727.8
658.746	19672.4	19569.6
659.144	19419.8	19386.2
659.563	19176.4	19145.8
659.982	18983.6	18986.4
660.38	18806.6	18734
660.8	18606	18529.2
661.219	18377.4	18361
661.617	18220.6	18122.2
662.037	17981	17897.8
662.457	17847.6	17732
662.855	17579.8	17572.4
663.275	17401.4	17369.8
663.695	17142.8	17069.2
664.094	16944	16886
664.514	16760.4	16743.8
664.934	16552	16489
665.333	16333.8	16328.2
665.753	16127.2	16085.4
666.152	15932	15888.4
666.572	15711.4	15684.4
666.993	15524.2	15552.2
667.392	15342.8	15305
667.812	15147.2	15137.2
668.212	14939.6	14971.6
668.632	14745.6	14780
669.053	14591.2	14560.8
669.453	14406.6	14354.6
669.874	14269.6	14192.6
670.273	14041.6	14035.6
670.694	13816.8	13800.6
671.116	13733.2	13681.8
671.515	13524.8	13455.2
671.937	13313.2	13274.4
672.337	13152.2	13095.8
672.758	12968	12949.4
673.158	12797.6	12832.6
673.58	12684.2	12643.4
673.98	12511.6	12468.6
674.402	12401	12342
674.824	12210.8	12182
675.224	12049.6	12026.6
675.646	11906	11862.2
676.047	11758	11760.2
676.469	11671.2	11572.4
676.869	11516.6	11499.2
677.292	11372.4	11323.4
677.693	11250.8	11166.8
678.115	11104.8	11030
678.516	10957	10894
678.939	10879.2	10831.4
679.34	10740	10737.4
679.762	10634.6	10574.8
680.164	10517.6	10487
680.586	10424	10373.4
680.988	10305	10238.8
681.411	10198.8	10138.4
681.812	10087.8	10063.8
682.236	9955.4	9940.6
682.637	9860	9869.6
683.061	9776.8	9698.8
683.462	9704.8	9643.8
683.864	9566.6	9544.2
684.288	9492.6	9493.6
684.69	9388.6	9408.4
685.114	9358	9342.2
685.516	9252.6	9222.2
685.94	9172.8	9119.6
686.342	9055.8	9086
686.766	9015.8	8969.6
687.168	8895.2	8861.2
687.571	8872.4	8838.8
687.995	8760	8728
688.398	8677	8636.2
688.822	8617.4	8547.2
689.225	8538.8	8520
689.628	8458.6	8431
690.052	8368.4	8347
690.456	8333.6	8309.8
690.88	8267.8	8236.8
691.284	8128.6	8173.6
691.687	8077.6	8094
692.112	8039.8	7982.4
692.515	7975.4	7939.2
692.919	7929.2	7881.8
693.344	7871.4	7793.2
693.747	7764.6	7721.8
694.173	7707.8	7659.8
694.577	7633.4	7625.2
694.98	7576.2	7539.4
695.406	7464.2	7446
695.81	7393	7408.4
696.214	7332.4	7368
696.64	7272.6	7247.4
697.044	7177.4	7177.2
697.448	7146.6	7112.4
697.874	7039.8	7020.2
698.279	6972.2	6995
698.684	6861.4	6913.4
699.11	6846.8	6860.6
699.514	6766	6772.8
699.919	6715	6685.8
700.324	6634	6626
700.75	6578	6590
701.156	6490.8	6543
701.561	6424	6437
701.987	6394.2	6349.2
702.393	6292.4	6300.6
702.798	6253	6252.2
703.203	6143.4	6128
703.63	6081.4	6062.8
704.036	6036.8	5998.4
704.442	5948.2	5955.4
704.847	5875.4	5847.8
705.274	5831.2	5838
705.68	5762.6	5750.4
706.086	5692.2	5674
706.492	5633.4	5597.4
706.92	5561	5561
707.326	5494.2	5516
707.732	5429.4	5448.2
708.139	5381.4	5380
708.545	5324	5317.8
708.973	5234.8	5257
709.38	5207.2	5176.6
709.786	5140.2	5138
710.193	5117.8	5094.2
710.6	5015.6	5025.4
711.028	4969.8	4968
711.435	4906.4	4938.8
711.842	4849.2	4866.4
712.249	4811.6	4792.6
712.656	4766.4	4731.6
713.064	4724.6	4711.4
713.492	4660.8	4626.4
713.9	4605.2	4608.4
714.307	4543	4516.2
714.715	4502	4457.2
715.123	4466.4	4412
715.53	4411.2	4385
715.938	4365.6	4351.2
716.367	4298.8	4291.2
716.775	4272.4	4228.2
717.184	4206.6	4207.2
717.592	4190.2	4154
718	4134.4	4111.8
718.408	4081.8	4087.4
718.816	4067.6	4063.6
719.225	3995.4	4002
719.633	3929.2	3917.6
720.042	3915.6	3881.4
720.472	3857.4	3825
720.881	3818.8	3819.2
721.29	3762	3749.8
721.699	3708.8	3700.6
722.108	3698.4	3681.4
722.517	3649.8	3658.6
722.926	3598.4	3577
723.335	3557.8	3558.8
723.744	3528.6	3523
724.154	3469	3467.4
724.563	3427.8	3446
724.973	3417.4	3360.8
725.382	3351.8	3345.2
725.792	3302.4	3310.2
726.202	3274	3269.4
726.612	3242.8	3259.2
727.022	3193.2	3201.2
727.432	3135.2	3142.2
779.813	3115.6	3129.2
780.223	3110	3121
780.634	3074.4	3014.6
781.044	3004.8	3015.2
781.454	2979	2971.8
781.865	2941.6	2943
782.276	2904.2	2892.6
782.686	2863	2871.8
783.097	2826.4	2808.6
783.508	2815.4	2801.2
783.919	2786.2	2780.6
784.33	2751	2739.2
784.741	2726.8	2722
785.152	2681.6	2660.8
785.563	2631.2	2636.8
785.974	2582.2	2608
786.386	2587	2571.6
786.776	2543.2	2521.8
787.188	2526.8	2512
787.599	2472.8	2486
788.011	2448.8	2447
788.423	2432	2418.6
788.835	2393.4	2394.2
789.247	2358.8	2362.6
789.659	2318.8	2337.4
790.071	2318.4	2291
790.483	2336.2	2326
790.874	2275.8	2250.6
791.286	2234	2244.8
791.699	2208.8	2205.6
792.111	2195	2184.8
792.524	2165.8	2171.8
792.937	2129.2	2140.6
793.349	2097	2085.6
793.741	2071.6	2090
794.154	2049	2058
794.567	2037.6	2055.8
794.98	2027.2	2007
795.393	1977.2	1988.6
795.785	1972.6	1955.4
796.198	1938.4	1937.2
796.612	1931.8	1939.8
797.026	1902.4	1914.6
797.439	1877.4	1877.2
797.831	1870	1886.8
798.245	1852	1850
798.659	1838.8	1835.8
799.073	1801	1806
799.487	1806.4	1794.2
799.88	1776.8	1768.6
800.294	1759.2	1748.2
800.708	1751.4	1746.4
801.123	1715.8	1698.8
801.516	1709.6	1702.4
801.93	1667.8	1679.6
802.345	1646.4	1659.2
802.76	1642.2	1654.2
803.153	1646.2	1637
803.568	1628.4	1617.2
803.983	1616.6	1626.4
804.377	1586.8	1586
804.792	1556.2	1562.4
805.207	1535.2	1559.2
805.601	1543	1543.6
806.016	1557.6	1554
806.432	1498.8	1494.2
806.826	1516.4	1526.2
807.242	1505.2	1481.4
807.658	1466.8	1463.8
808.052	1451.4	1456.4
808.468	1448.4	1434
808.884	1426.8	1413.8
809.279	1425.2	1411.6
809.695	1425	1420.2
810.111	1401.6	1412.6
810.506	1378.6	1377.2
810.922	1407.2	1374.8
811.339	1351	1349.8
811.734	1365	1340.6
812.151	1329	1339.4
812.546	1308.6	1331.4
812.963	1300.8	1304.4
813.38	1309	1303
813.776	1296.8	1289.8
814.193	1294	1298.8
814.589	1278.6	1253
815.006	1257	1261.6
815.402	1257	1252.6
815.82	1248.2	1232.6
816.237	1232.6	1228.8
816.633	1223.6	1228
817.051	1212.8	1202.4
817.448	1189.6	1199.6
817.866	1191.6	1174
818.262	1198.4	1192.8
818.68	1175.6	1172.8
819.077	1162.2	1161.4
819.495	1160.8	1148.2
819.892	1176	1183.8
820.311	1133.6	1126.6
820.708	1126.8	1127.8
821.127	1112.6	1121.2
821.524	1127	1118.8
821.943	1102.4	1106
822.34	1114.8	1120.2
822.759	1095	1097.4
823.157	1083	1088
823.576	1096.8	1089.2
823.974	1079	1068.2
824.393	1131.6	1136.6
824.791	1054.6	1060
825.189	1039	1044.2
825.609	1040	1035.4
826.007	1027	1030.4
826.427	1025.2	1019.6
826.826	1016	1009
827.246	1014.8	1017.6
827.644	1001.4	1005.6
828.043	1015.8	1004.2
828.463	996.8	996.4
828.862	997.2	1004.4
829.261	991.2	982.4
829.682	962.2	979.4
830.081	979.2	961.8
830.502	953	960.8
830.901	956.2	961.4
831.301	970	958
831.722	930.2	935
832.121	959	951.2
832.521	932.8	939.2
832.943	949.2	935.8
833.342	939	930.2
833.742	919.6	932.6
834.164	918.2	917.4
834.564	909.4	922.8
834.965	909.2	912.2
835.386	909.6	909
835.787	895.6	897.2
836.188	906.4	895.2
836.588	902.6	894.8
837.01	884.6	889.2
837.411	877.4	881.2
837.812	888.8	893.4
838.213	881	872
838.636	874.6	877.2
839.037	920.2	925
839.438	885	873.4
839.84	875.8	865.4
840.263	871.2	861.2
840.664	876.2	859.2
841.066	858.8	860.4
841.468	855.6	843.4
841.891	847.2	842.8
842.293	841.2	857
842.695	854	846.6
843.098	852.8	841.2
843.5	835.4	832.4
843.902	830	834.4
844.326	840.4	820.4
844.729	831.4	833.2
845.131	830.6	828.4
845.534	820.6	819.2
845.937	820.6	821
846.34	822	829
846.764	811.2	809.4
847.167	798.8	808.6
847.571	794.8	798.6
847.974	802.4	791.2
848.377	796.8	800.4
848.781	830.8	841.4
849.184	803.2	800
849.588	785.8	796
849.992	792.2	791.8
850.396	782	792.8
850.821	795.4	804
851.225	785.8	785.8
851.63	769	774.8
852.034	781.6	781
852.438	770	770.4
852.843	833	839.2
853.247	753	755.4
853.652	755	757.2
854.057	779	780.6
854.462	765	766
854.867	765.6	754.2
855.272	780.4	775.8
855.677	754	765
856.082	748.2	740.2
856.487	743.8	747.2
856.893	756.2	762.6
857.298	750.2	741.4
857.704	734	744.2
858.11	752.2	753.4
858.516	743.2	756.8
858.922	734	743.6
859.328	749	743.6
859.734	738.4	741.4
860.14	740.6	732.8
860.525	734	732.4
860.931	729.4	730
861.338	726.8	719.2
861.745	721.6	735.6
862.151	739	728
862.558	727.6	727.2
862.965	711.6	724.8
863.372	714.2	719.6
863.779	726.6	713.8
864.186	736.6	740.4
864.572	724.2	715
864.98	723.4	726
865.387	743.6	735
865.795	706.6	704.4
866.203	730.2	728
866.61	703.4	707.4
867.018	721.4	715.8
867.405	707	714.2
867.813	702.2	703
868.221	707.4	701.2
868.63	708.2	696.8
869.038	706.2	709.8
869.425	733.6	740.8
869.834	710.8	703
870.243	700.2	700.8
870.652	699.6	688.6
871.039	686.2	693.8
871.448	695.8	690.6
871.857	693.4	698.2
872.266	699.4	695.8
872.654	701.8	692.4
873.064	688.8	681.8
873.473	698.2	691.4
873.883	677.4	680.6
874.271	686.2	683.6
874.681	692	689.2
875.091	679	674
875.48	688	697.2
875.89	689.2	701.4
876.3	674.2	676.4
876.689	667.4	660.4
877.1	680	671.2
877.51	677.6	666.8
877.9	693.4	691.2
878.31	667	678
878.721	700.8	704
879.111	668.4	671.8
879.522	665.2	669.4
879.933	658.6	660
880.323	667.2	660.6
880.734	660.4	659
881.125	664.6	668
881.536	666.8	673.8
881.948	656	657.4
882.338	658.6	656.8
882.75	672.4	674.6
883.141	667.2	662.6
883.553	668.8	659.6
883.944	679.6	678.2
884.356	662.8	658.2
884.769	654	654.4
885.16	652.6	646
885.573	654.6	659.2
885.964	641	652.4
886.377	650.6	652
886.768	639.6	647.2
887.181	648.4	651.6
887.573	638.4	645
887.987	652.6	659.4
888.378	655.8	657
888.792	643.6	655.6
889.184	684.6	684
889.598	640.6	636.2
889.99	653.2	648.2
890.383	642.6	642.6
890.797	638.4	637
891.19	658	649.6
891.604	631.6	646.8
891.997	633.4	635.6
892.411	643	636.4
892.805	643.8	629.4
893.198	628.6	634
893.613	627.6	628.6
894.006	642.4	642
894.421	634.6	632.2
894.815	627	629.4
895.209	629.4	636.6
895.624	669	668.6
896.018	653.4	646.4
896.412	624.2	635.4
896.828	623.8	625
897.222	644.4	630.8
897.617	623	630.8
898.033	650	643.4
898.427	627	626.6
898.822	630.8	629
899.239	622.2	615.8
899.634	615.8	619.4
900.029	641	638.4
900.424	613.4	621.6
900.841	617.4	615.6
901.236	631.8	628.6
901.632	620.8	631.2
902.027	669.8	669.8
902.445	625.6	628.6
902.841	620.2	620.8
903.237	628.8	626.2
903.633	625.4	630.4
904.05	621	626.4
904.447	624.2	621
904.843	622	629.8
905.24	620	613.4
905.636	614	611.6
906.033	617.2	621.4
906.451	631.8	633.6
906.848	607	610.2
907.246	608.8	612.6
907.643	612.6	616
908.04	607.8	614
908.438	620	627
908.835	616.2	612.4
909.254	614.2	603.4
909.652	611.2	610.4
910.05	604	607.2
910.448	606.6	606.2
910.846	613.2	607.8
911.244	610.2	599.2
911.643	616.4	609.8
912.041	608.4	610.2
912.44	620	615
912.839	599.4	597.8
913.237	604.2	606.8
913.636	599.6	596.8
914.035	617.8	610.2
914.434	606	603.2
914.834	611.6	617.4
915.233	616.4	619.6
915.633	601.6	603.4
916.032	597.6	603.2
916.432	595	599.4
916.832	617.6	618.6
917.232	595.6	595.4
917.632	591.8	591
918.032	606.4	603.8
918.432	596.6	600
918.833	605.6	594.2
919.233	602.8	598.6
919.634	594	592
920.035	601.6	601.2
920.436	593.4	592.6
920.837	605	596.8
921.238	594.6	590.2
921.639	598.2	606
922.019	595.8	594.6
922.42	588.6	596
922.822	603.6	606
923.224	600.6	593.4
923.625	591	599.8
924.027	588.2	591
924.429	598.8	606
924.81	596.8	606.8
925.212	591.2	594.4
925.615	589.8	594.8
926.017	587.4	593.6
926.42	598.4	607.2
926.801	591.6	600.6
927.204	592.4	597.6
927.607	603	594
928.01	604.8	612.4
928.413	592.2	594
928.795	585.2	578.4
929.199	594	586.2
929.602	591.8	587.6
930.006	586.2	586.8
930.388	572.6	590
930.792	599.4	594.4
931.196	587.2	594.4
931.579	617.4	622.2
931.983	589.6	587.4
932.388	627.4	631.4
932.771	592.8	585.8
933.176	587.8	589.4
933.58	589.2	594.4
933.964	594.8	596
934.369	578.2	581.8
934.774	586.8	590.6
935.158	584.2	583.2
935.563	589.6	592.6
935.947	594.2	585.6
936.353	593.6	591
936.759	581.6	590
937.143	587.2	596.2
937.549	593.6	593.8
937.934	600.4	598.4
938.34	599.8	605.6
938.746	583.8	590.6
939.131	579.2	587.8
939.538	576.2	582.2
939.923	593.4	590.4
940.33	588.8	579.4
940.716	581.6	590.8
941.123	590.8	593
941.508	593.8	602.6
941.916	597.2	604
942.302	584.2	592.4
942.709	574.8	575
943.096	573.2	584
943.503	587	590.8
943.89	584.8	580.8
944.298	577.6	583.4
944.685	605.6	606.6
945.072	585.8	584.2
945.48	587.2	596.6
945.867	581.6	578
946.276	571.2	577.6
946.663	603.8	594.4
947.051	589.6	590.6
947.46	593	580.8
947.848	582.6	587
948.257	580.8	581.8
948.645	583.4	574.2
949.033	570.8	573.6
949.443	571.2	568
949.831	618	614
950.22	571.2	566.6
950.63	591.6	581.4
951.018	599.4	609.8
951.407	588.2	578.6
951.796	572.8	575.6
952.207	585.4	586.8
952.596	586.4	587.4
952.985	576	582.6
953.375	606.4	613.8
953.786	579.6	584.6
954.176	569.6	569.4
954.566	579.2	584.8
954.956	571.2	572
955.367	580.8	576.8
955.758	596.8	587.4
956.148	574.2	576
956.539	586.8	592.2
956.929	572.8	579.8
957.341	573	577
957.732	578.6	586.4
958.123	582.2	590.8
958.515	574.2	575.2
958.906	583.4	581.2
959.297	576.6	577.8
959.689	578	582.4
960.102	575	574.8
960.494	581.2	586
960.886	586.4	580
961.278	570.8	574
961.67	600.6	589.6
962.062	610.8	610.2
962.455	578.6	573.4
962.847	571.6	568.8
963.24	574.8	564
963.633	577.6	578.2
964.026	576.4	571.8
964.419	584.6	580.8
964.812	588.6	585.4
965.206	571.4	571
965.599	581.6	577
965.993	583.2	573.8
966.386	575.6	579.6
966.78	582	593.8
967.174	582.2	590.4
967.569	575.2	573
967.963	570	570
968.357	575.4	575
968.752	569.8	570.6
969.146	576.4	574.2
969.541	564.8	576.2
969.936	574	571.4
970.331	572	573
970.705	578.8	575.8
971.1	580.2	575.4
971.496	571.8	585.2
971.892	573.2	569
972.287	577.2	581.6
972.683	561.4	584
973.079	571.6	574
973.454	585.4	588.8
973.85	569.6	577.2
974.247	578	588.4
974.643	596	597.4
975.04	574.4	580.4
975.415	564.4	575.6
975.812	565.8	572
976.209	580.2	577.8
976.607	564.4	572.2
976.982	587.2	577
977.38	585.4	594
977.778	575.8	577.2
978.175	567.6	575.2
978.552	565.6	575.2
978.95	573.8	588
979.348	578	581
979.725	620.6	621.4
980.123	566.4	571.6
980.522	580.4	571
980.899	564.2	573.4
981.298	574	585.6
981.697	577.4	580.8
982.075	570.4	571.8
982.474	568.8	575.8
982.852	578.4	578.4
983.251	574.2	575.4
983.651	571.4	576
984.029	572.8	576.2
984.429	571.4	575.4
984.808	560.4	567.4
985.208	580.4	570.4
985.609	567	570.8
985.987	569.4	565.6
986.388	577.8	570.4
986.768	578.8	578.4
987.168	571	569
987.548	569.4	582.2
987.949	581.6	576.2
988.329	587.4	575
988.731	564	559.2
989.111	565.6	578.2
989.491	572.6	577.6
989.893	569.6	571.2
990.273	578.2	583.4
990.676	571	565
991.057	567.2	566.4
991.459	568.8	567
991.84	575.4	572.6
992.221	566.6	567.2
992.624	584.6	588.4
993.006	571.6	573.4
993.388	577.2	573.6
993.791	587.8	575.4
994.173	578	578.4
994.576	606.8	604.4
994.959	568.8	571.4
995.341	576.4	567.6
995.724	572.6	565
996.128	566.2	574
996.511	581	574.6
996.894	573	580.6
997.298	573.4	565.8
997.681	574.6	571
998.065	572	573.8
998.448	572.2	568.2
998.854	581.2	584
999.237	573.4	568.6
999.621	585.8	590.8
1000.01	587.8	590.2
1000.39	574.2	574.4
1000.8	575.6	578.8
1001.18	587.6	575.2
1001.56	584	580.2
1001.95	582.6	572.8
1002.33	578	576
1002.72	565.6	568.4
1003.13	579.2	577.6
1003.51	575.4	572.8
1003.9	576.6	564.6
1004.28	580.8	586.2
1004.67	574.6	572.6
1005.06	575.2	570.2
1005.44	605.2	601.4
1005.83	568.8	564.4
1006.21	565.4	572.6
1006.6	570.4	568.6
1006.99	587	579.8
1007.37	579.6	573.8
1007.76	583	580.4
1060.12	571	561.8
1060.51	573	564.6
1060.89	588.8	587.4
1061.28	584.6	583.8
1061.67	582.4	576.2
1062.06	571.8	579.8
1062.45	572.6	588.6
1062.83	564.2	570.8
1063.22	583.8	584.8
1063.61	606.2	612.4
1064	580.2	586.8
1064.39	572.8	569
1064.78	576.4	572.8
1065.14	589.2	583.6
1065.53	576.8	569.8
1065.92	576	577.8
1066.31	570.6	564.8
1066.7	582.4	573.2
1067.09	588.2	579.4
1067.46	586.8	577.4
1067.85	572	569.8
1068.24	565.6	567.4
1068.63	574.6	578.6
1069.02	568.2	566.2
1069.39	579.2	581.8
1069.78	572	571.8
1070.17	573.6	577.2
1070.57	568	569.4
1070.93	584.2	579.4
1071.33	567.4	572.4
1071.72	575.4	576.6
1072.11	569.2	575.4
1072.48	577.6	572.2
1072.87	567.6	577.6
1073.26	578	578.4
1073.64	569.4	569.4
1074.03	571.2	578.6
1074.4	574.2	568.4
1074.79	567.2	572.6
1075.19	580.4	586.8
1075.56	586.6	580.6
1075.95	581.2	581.8
1076.34	578.2	573
1076.72	565.6	579.8
1077.11	570.8	584.2
1077.48	592.2	586.2
1077.88	577.8	577.8
1078.25	578.8	571.6
1078.64	584.8	585.8
1079.02	578.8	582.8
1079.41	581.6	584.8
1079.78	570.6	578.4
1080.18	572.4	581.4
1080.55	624.6	627.8
1080.95	571	579.4
1081.32	566.4	583.6
1081.72	592.2	590.2
1082.09	576	578.2
1082.49	571	569.6
1082.86	576.6	581.4
1083.24	569	566.8
1083.63	561.2	572.6
1084.01	574.4	568.4
1084.38	579	580.6
1084.78	564.6	576
1085.16	576.4	579
1085.55	580.4	589.4
1085.93	591.4	579.8
1086.31	572.8	565.4
1086.7	600.4	600.4
1087.08	578.2	580.4
1087.46	570.8	578.4
1087.83	571.2	569.8
1088.23	577.4	581.2
1088.61	578.6	574
1088.99	580.2	574.2
1089.36	577.2	569.8
1089.76	574.8	580.4
1090.14	572.8	573.4
1090.52	578.4	578.6
1090.9	573.4	575.4
1091.27	586	590
1091.67	596.8	596.4
1092.05	576.8	585.6
1092.43	575	572.2
1092.81	585.8	585
1093.19	589.4	580.8
1093.57	578.6	574.4
1093.95	568.8	568.2
1094.35	582.8	584
1094.73	584	586.8
1095.11	574.4	573.4
1095.49	579.2	576
1095.87	578	577.2
1096.25	585.4	593.8
1096.63	581	583.4
1097.01	574.8	582
1097.39	592.4	581.2
1097.77	575	583.8
1098.15	581.6	586.4
1098.53	571	575.8
1098.91	590.6	584.4
1099.29	575.6	583.8
1099.68	600.8	587.6
1100.06	590.2	593.4
1100.44	588.4	587
1100.82	579.6	583.8
1101.18	588.6	575
1101.56	576	581.8
1101.95	577.6	577.4
1102.33	578.6	577
1102.71	574.4	580.4
1103.1	577.2	574.6
1103.48	576.2	575
1103.86	578	576.6
1104.22	585.8	585.2
1104.61	584.6	579.8
1104.99	573.2	571.8
1105.38	573	569.4
1105.76	583.8	575.2
1106.12	581.2	570.8
1106.51	609.4	598
1106.89	589.8	586.2
1107.26	583.8	575
1107.64	586.2	585.4
1108.03	575.6	577.2
1108.41	578.8	579.4
1108.78	582	576
1109.16	573.6	577
1109.55	587.4	587.4
1109.91	569.8	566.2
1110.3	566	568.6
1110.69	591.6	586.8
1111.05	575.8	584.8
1111.44	576.2	584
1111.8	584.8	574.4
1112.19	581.6	574.8
1112.58	584.6	584.6
1112.94	570.2	579.4
1113.33	577.4	579.8
1113.7	571.8	570
1114.09	569.4	576.4
1114.45	571.8	570.4
1114.84	570.4	578.2
1115.21	583.6	586.8
1115.6	573.4	573.6
1115.96	572.8	577
1116.35	582.4	586.4
1116.72	587	576.4
1117.11	587.6	588.2
1117.48	570.6	571.8
1117.85	575.4	579.4
1118.24	586.2	593
1118.6	582.6	571.2
1118.99	576.8	574.2
1119.36	574.4	578.4
1119.73	577.6	579.8
1120.12	576.8	577
1120.49	565.8	569.8
1120.86	576.2	593.4
1121.25	582.2	577
1121.62	568.2	570.4
1121.99	579.2	575
1122.38	585.4	596.6
1122.76	589.4	573
1123.13	581	582.4
1123.5	579.2	582.6
1123.89	592	584
1124.26	571.8	570.4
1124.63	580	578.8
1125	573	590.2
1125.4	574.2	565.2
1125.77	572.2	574.2
1126.14	566.2	564
1126.51	582.8	574.4
1126.88	581	586.8
1127.26	571.6	580.4
1127.63	563.8	566.4
1128.02	569.8	580.2
1128.4	567	577.2
1128.77	577.4	582.4
1129.14	575.8	579.4
1129.52	577.2	573.6
1129.89	582.4	578
1130.26	577.4	570
1130.64	573.6	569.4
1131.01	579.8	570.2
